== Analysis Data ==
                                               Administrative information

Analysis performed on:                                                        2016/04/29
Analysis performed by:                                                        Ayupov
Comments:                                                                     Run with VectoreDose
Instrument:                                                                   Autosorb iQ S/N:14715112301 Station: 2
Instrument version:                                                           4.00.14111
Software version:                                                             n/a
 
                                                   Sample information

Id:                                                                           SARM 2005_2
Description:                                                                  Reference sample
Weight:                                                                       0.1114 g
 
                                                  Analysis information

Analysis gas:                                                                 Nitrogen
Cross Section Area:                                                           16.2 
Molecular weight:                                                             28.0134 
Non-ideality correction:                                                      6.58e-05 
Ambient temperature:                                                          300 K
== Data Reduction Parameters ==
                  Thermal Transpiration: off    Eff. mol. diameter (D): 3.54 Å      Eff. cell stem diam. (d): 4.0000 mm
t-Method          Calc. method: Halsey
Alpha-s method    Std. isotherm: _AALUM1        P / Po :          0.00
BJH/DH method     Moving pt. avg.: 3            Ignoring P-tags below 0.35 P/Po
DA Method         Incr. E:    500.000           Incr. n:          0.100             Interact. Const. (K): 2.960nm³ x kJ / mol
Adsorbate model   Nitrogen                      Temperature       77.350K
                  Molec. Wt.: 28.013            Cross Section:    16.200  Å²        Liquid Density:   0.806  g/cc
                  Contact Angle: 0.0  degrees   Surf. Tension:    8.850  erg/cm²
                  Critical Temp.: 126.200  K    Critical Press.:  33.500  atm       SuperCritic. K.:  1.000
                  Avg. Diameter:0.300  nm       Polarizability:   1.460  (cc/molec) x 10-24Magn. Suscept.:2.000
                  Molec. Density6.700  (mol/cm²)x1014
Adsorbent model   Oxygen/Zeolite
== Extended Outgas Data ==
                                               Outgas Temperature Profile
  
                  Target Temp. (deg)                      Rate (deg/min)                     Soak Time (min)
  
1.                              80.0                                 1.0                                  30
2.                              90.0                                 1.0                                  30
3.                             120.0                                 1.0                                  30
4.                             300.0                                 1.0                                 180
 
                          Pressure Controlled Heating:      Limit: 0.1 torr
 
                                                Empty Cell Weight:      17.5768 g
                                  Pre-outgas Weight (Cell+Sample):      17.6908 g
                                 Post-outgas Weight (Cell+Sample):      17.6882 g
== Isotherm ==


                          Relative                                                  Volume @ STP
                          Pressure                                                         
                                                                                        cc/g

                             4.59576e-05                                                 1.7941
                             6.97442e-05                                                 3.5971
                             1.04210e-04                                                 5.3937
                             1.74763e-04                                                 7.1837
                             3.15857e-04                                                 8.9609
                             6.49661e-04                                                10.6807
                             1.33238e-03                                                12.3154
                             2.40915e-03                                                13.8416
                             4.03948e-03                                                15.2331
                             6.33712e-03                                                16.4530
                             9.28663e-03                                                17.4986
                             1.28484e-02                                                18.4012
                             1.69399e-02                                                19.1754
                             2.14158e-02                                                19.8473
                             2.61802e-02                                                20.4360
                             3.12023e-02                                                20.9725
                             3.64398e-02                                                21.4484
                             4.18216e-02                                                21.9097
                             4.72314e-02                                                22.3311
                             5.27864e-02                                                22.7310
                             5.85497e-02                                                23.1115
                             6.43259e-02                                                23.4728
                             7.00680e-02                                                23.8163
                             7.60761e-02                                                24.1564
                             8.18484e-02                                                24.4838
                             8.79314e-02                                                24.8029
                             9.39964e-02                                                25.1215
                             9.99879e-02                                                25.4260
                             1.05945e-01                                                25.7214
                             1.11872e-01                                                26.0104
                             1.17796e-01                                                26.3006
                             1.24005e-01                                                26.5967
                             1.30765e-01                                                26.9126
                             1.37005e-01                                                27.2079
                             1.42894e-01                                                27.4697
                             1.48683e-01                                                27.7491
                             1.54525e-01                                                28.0059
                             1.60547e-01                                                28.2919
                             1.66532e-01                                                28.5512
                             1.72113e-01                                                28.8318
                             1.78134e-01                                                29.0912
                             1.84160e-01                                                29.3477
                             1.89928e-01                                                29.5993
                             1.95818e-01                                                29.8663
                             2.01741e-01                                                30.1279
                             2.07719e-01                                                30.3857
                             2.13462e-01                                                30.6710
                             2.19665e-01                                                30.9309
                             2.25473e-01                                                31.1800
                             2.31481e-01                                                31.4359
                             2.37310e-01                                                31.7087
                             2.43564e-01                                                31.9868
                             2.49670e-01                                                32.2427
                             2.55398e-01                                                32.5015
                             2.61009e-01                                                32.7615
                             2.66993e-01                                                33.0314
                             2.72725e-01                                                33.3369
                             2.78815e-01                                                33.5935
                             2.84640e-01                                                33.8501
                             2.90813e-01                                                34.1134
                             2.96853e-01                                                34.3639
                             3.02931e-01                                                34.6434
                             3.08774e-01                                                34.9606
                             3.14929e-01                                                35.2334
                             3.20145e-01                                                35.5204
                             3.26233e-01                                                35.7920
                             3.32328e-01                                                36.0619
                             3.38311e-01                                                36.3342
                             3.43623e-01                                                36.6736
                             3.49710e-01                                                36.9591
                             3.55581e-01                                                37.2332
                             3.61498e-01                                                37.5105
                             3.67495e-01                                                37.7846
                             3.73693e-01                                                38.0663
                             3.79332e-01                                                38.3385
                             3.84855e-01                                                38.6975
                             3.90777e-01                                                38.9939
                             3.96982e-01                                                39.2962
                             4.02770e-01                                                39.5736
                             4.08499e-01                                                39.8699
                             4.15105e-01                                                40.1625
                             4.20333e-01                                                40.4527
                             4.26614e-01                                                40.7480
                             4.31521e-01                                                41.1287
                             4.37116e-01                                                41.4265
                             4.43515e-01                                                41.7417
                             4.49357e-01                                                42.0500
                             4.55039e-01                                                42.3606
                             4.60580e-01                                                42.6692
                             4.66790e-01                                                42.9938
                             4.72800e-01                                                43.3084
                             4.77545e-01                                                43.7075
                             4.83476e-01                                                44.0640
                             4.89299e-01                                                44.3714
                             4.94448e-01                                                44.7178
                             5.00015e-01                                                45.0554
                             5.06403e-01                                                45.3979
                             5.11729e-01                                                45.7423
                             5.17619e-01                                                46.1010
                             5.23515e-01                                                46.4525
                             5.28277e-01                                                46.9238
                             5.34010e-01                                                47.2959
                             5.38941e-01                                                47.6601
                             5.45428e-01                                                48.0638
                             5.51235e-01                                                48.4471
                             5.56343e-01                                                48.8127
                             5.62496e-01                                                49.2141
                             5.67223e-01                                                49.6031
                             5.72129e-01                                                50.0960
                             5.77462e-01                                                50.5266
                             5.82730e-01                                                50.9310
                             5.88497e-01                                                51.3544
                             5.93266e-01                                                51.7803
                             5.98942e-01                                                52.1969
                             6.04670e-01                                                52.6538
                             6.10159e-01                                                53.1094
                             6.14808e-01                                                53.5480
                             6.19269e-01                                                54.1538
                             6.24803e-01                                                54.5973
                             6.29566e-01                                                55.0808
                             6.35037e-01                                                55.5722
                             6.39568e-01                                                56.0736
                             6.44769e-01                                                56.5679
                             6.50102e-01                                                57.0720
                             6.55175e-01                                                57.6015
                             6.59213e-01                                                58.1369
                             6.64038e-01                                                58.8619
                             6.69149e-01                                                59.3857
                             6.73310e-01                                                59.9545
                             6.77820e-01                                                60.5175
                             6.83265e-01                                                61.1266
                             6.87275e-01                                                61.7395
                             6.92258e-01                                                62.3713
                             6.96690e-01                                                63.0083
                             7.00383e-01                                                63.8068
                             7.05119e-01                                                64.4424
                             7.08518e-01                                                65.1103
                             7.13772e-01                                                65.7898
                             7.18197e-01                                                66.4910
                             7.21598e-01                                                67.2091
                             7.26659e-01                                                67.9431
                             7.28953e-01                                                68.9318
                             7.33257e-01                                                69.5949
                             7.37132e-01                                                70.3523
                             7.41528e-01                                                71.1627
                             7.45345e-01                                                71.9954
                             7.48590e-01                                                72.8241
                             7.53187e-01                                                73.6965
                             7.55730e-01                                                74.7599
                             7.59276e-01                                                75.5738
                             7.63128e-01                                                76.4665
                             7.65981e-01                                                77.3648
                             7.69436e-01                                                78.3172
                             7.73332e-01                                                79.2940
                             7.75912e-01                                                80.2907
                             7.78401e-01                                                81.4202
                             7.81259e-01                                                82.3339
                             7.84697e-01                                                83.3836
                             7.87474e-01                                                84.4423
                             7.90067e-01                                                85.5002
                             7.93135e-01                                                86.6128
                             7.94830e-01                                                87.9253
                             7.98389e-01                                                88.9019
                             8.00341e-01                                                90.0177
                             8.03020e-01                                                91.1877
                             8.05245e-01                                                92.3661
                             8.07783e-01                                                93.5633
                             8.09436e-01                                                94.9735
