== Analysis Data ==
                                               Administrative information

Analysis performed on:                                                        2016/04/29
Analysis performed by:                                                        Ayupov
Comments:                                                                     9mm w/ filler rod with bulb; measure void volume & P0
Instrument:                                                                   Autosorb iQ S/N:14715112301 Station: 1
Instrument version:                                                           4.00.14111
Software version:                                                             n/a
 
                                                   Sample information

Id:                                                                           Nabalox-615-10
Description:                                                                  Non-porous alpha-alumina.Surface potential studies
Weight:                                                                       1.5449 g
 
                                                  Analysis information

Analysis gas:                                                                 Nitrogen
Cross Section Area:                                                           16.2 
Molecular weight:                                                             28.0134 
Non-ideality correction:                                                      6.58e-05 
Ambient temperature:                                                          300 K
== Data Reduction Parameters ==
                  Thermal Transpiration: off    Eff. mol. diameter (D): 3.54 Å      Eff. cell stem diam. (d): 4.0000 mm
t-Method          Calc. method: Halsey
MP method         Thickness interval: 1.00A
Alpha-s method    Std. isotherm: _AALUM1        P / Po :          0.00
BJH/DH method     Moving pt. avg.: 3            Ignoring P-tags below 0.35 P/Po
DA Method         Incr. E:    500.000           Incr. n:          0.100             Interact. Const. (K): 2.960nm³ x kJ / mol
DR method         Affinity coefficient (ß): 0.3300
Adsorbate model   Nitrogen                      Temperature       77.350K
                  Molec. Wt.: 28.013            Cross Section:    16.200  Å²        Liquid Density:   0.806  g/cc
                  Contact Angle: 0.0  degrees   Surf. Tension:    8.850  erg/cm²
                  Critical Temp.: 126.200  K    Critical Press.:  33.500  atm       SuperCritic. K.:  1.000
                  Avg. Diameter:0.300  nm       Polarizability:   1.460  (cc/molec) x 10-24Magn. Suscept.:2.000
                  Molec. Density6.700  (mol/cm²)x1014
Adsorbent model   Oxygen/Zeolite
                  Atom Diameter: 0.276  nm      Surf. Atom Dens.: 13.100  (mol/cm²)x1014Polarizability: 2.500  (cc/molec)x10-24
                                                Magn. Susc.:      1.300  (cc/molec)x10-29
== Extended Outgas Data ==
                                               Outgas Temperature Profile
  
                  Target Temp. (deg)                      Rate (deg/min)                     Soak Time (min)
  
1.                              80.0                                 1.0                                  30
2.                              90.0                                 1.0                                  30
3.                             120.0                                 1.0                                  30
4.                             300.0                                 1.0                                 840
 
                          Pressure Controlled Heating:      Limit: 0.1 torr
 
                                                Empty Cell Weight:      21.7475 g
                                  Pre-outgas Weight (Cell+Sample):      23.2949 g
                                 Post-outgas Weight (Cell+Sample):      23.2924 g
== Isotherm ==


                          Relative                                                  Volume @ STP
                          Pressure                                                         
                                                                                        cc/g

                             1.25893e-07                                                 0.0000
                             1.58489e-07                                                 0.0000
                             1.99526e-07                                                 0.0000
                             2.51189e-07                                                 0.0000
                             3.16228e-07                                                 0.0000
                             5.02461e-07                                                 0.0106
                             5.03635e-07                                                 0.0107
                             6.28892e-07                                                 0.0148
                             8.32070e-07                                                 0.0171
                             9.93051e-07                                                 0.0220
                             1.27643e-06                                                 0.0258
                             1.49733e-06                                                 0.0305
                             1.90818e-06                                                 0.0421
                             2.42592e-06                                                 0.0509
                             3.14715e-06                                                 0.0595
                             4.08455e-06                                                 0.0683
                             5.17208e-06                                                 0.0756
                             6.27098e-06                                                 0.0820
                             7.94802e-06                                                 0.0894
                             1.11689e-05                                                 0.0999
                             1.19224e-05                                                 0.1020
                             1.80932e-05                                                 0.1172
                             1.99518e-05                                                 0.1208
                             2.44750e-05                                                 0.1286
                             3.38350e-05                                                 0.1420
                             4.03628e-05                                                 0.1494
                             5.55492e-05                                                 0.1635
                             6.32515e-05                                                 0.1697
                             1.03295e-04                                                 0.1941
                             1.05550e-04                                                 0.1952
                             1.34089e-04                                                 0.2079
                             1.64183e-04                                                 0.2193
                             2.23782e-04                                                 0.2374
                             2.67318e-04                                                 0.2482
                             3.28089e-04                                                 0.2611
                             4.37227e-04                                                 0.2798
                             5.09357e-04                                                 0.2899
                             6.46631e-04                                                 0.3060
                             8.19487e-04                                                 0.3219
                             1.05462e-03                                                 0.3388
                             1.29880e-03                                                 0.3527
                             1.59262e-03                                                 0.3662
                             2.01735e-03                                                 0.3817
                             2.55485e-03                                                 0.3971
                             3.22306e-03                                                 0.4122
                             4.05213e-03                                                 0.4271
                             5.09472e-03                                                 0.4420
                             6.31629e-03                                                 0.4560
                             7.96355e-03                                                 0.4713
                             1.00303e-02                                                 0.4850
                             1.30521e-02                                                 0.5071
                             1.60213e-02                                                 0.5219
                             1.90193e-02                                                 0.5355
                             2.20494e-02                                                 0.5471
                             2.50531e-02                                                 0.5580
                             5.10038e-02                                                 0.6290
                             7.45736e-02                                                 0.6811
                             9.93395e-02                                                 0.7302
                             1.24335e-01                                                 0.7782
                             1.49475e-01                                                 0.8249
                             1.74453e-01                                                 0.8706
                             1.99569e-01                                                 0.9146
                             2.24322e-01                                                 0.9594
                             2.49532e-01                                                 1.0047
                             2.74165e-01                                                 1.0506
                             2.99776e-01                                                 1.0967
                             3.24517e-01                                                 1.1432
                             3.48917e-01                                                 1.1892
                             3.74431e-01                                                 1.2367
                             3.99507e-01                                                 1.2829
                             4.24429e-01                                                 1.3291
                             4.49253e-01                                                 1.3757
                             4.74169e-01                                                 1.4233
                             4.99357e-01                                                 1.4712
                             5.24069e-01                                                 1.5195
                             5.49324e-01                                                 1.5680
                             5.73810e-01                                                 1.6170
                             6.01027e-01                                                 1.6710
                             6.25531e-01                                                 1.7351
                             6.50661e-01                                                 1.7929
                             6.75878e-01                                                 1.8507
                             7.00873e-01                                                 1.9095
                             7.25084e-01                                                 1.9714
                             7.50365e-01                                                 2.0371
                             7.75390e-01                                                 2.1097
                             7.99845e-01                                                 2.1916
                             8.24458e-01                                                 2.2839
                             8.49306e-01                                                 2.3951
                             8.74649e-01                                                 2.5340
                             8.99407e-01                                                 2.7067
                             9.04654e-01                                                 2.7518
                             9.09262e-01                                                 2.7966
                             9.14484e-01                                                 2.8464
                             9.20501e-01                                                 2.9325
                             9.24474e-01                                                 2.9770
                             9.30201e-01                                                 3.0544
                             9.35476e-01                                                 3.1370
                             9.39109e-01                                                 3.1900
                             9.44552e-01                                                 3.2929
                             9.49863e-01                                                 3.3940
                             9.53705e-01                                                 3.5036
                             9.60050e-01                                                 3.6640
                             9.64699e-01                                                 3.8308
                             9.69340e-01                                                 4.0527
                             9.73984e-01                                                 4.3448
                             9.79698e-01                                                 4.7746
                             9.84017e-01                                                 5.2635
                             9.89246e-01                                                 6.2842
                             9.93399e-01                                                 8.2288
                             9.92945e-01                                                 8.2203
                             9.90594e-01                                                 7.3268
                             9.75376e-01                                                 4.6060
                             9.49475e-01                                                 3.4763
                             9.24316e-01                                                 3.0622
                             9.00797e-01                                                 2.8284
                             8.75511e-01                                                 2.6438
                             8.48869e-01                                                 2.4961
                             8.25515e-01                                                 2.3828
                             8.00177e-01                                                 2.2820
                             7.74292e-01                                                 2.1939
                             7.49795e-01                                                 2.1189
                             7.24340e-01                                                 2.0476
                             6.99228e-01                                                 1.9816
                             6.75748e-01                                                 1.9245
                             6.48563e-01                                                 1.8615
                             6.26197e-01                                                 1.8102
                             6.00887e-01                                                 1.7577
                             5.76065e-01                                                 1.7046
                             5.51033e-01                                                 1.6514
                             5.26098e-01                                                 1.5999
                             5.00729e-01                                                 1.5478
                             4.76011e-01                                                 1.4916
                             4.50760e-01                                                 1.4374
                             4.23873e-01                                                 1.3730
                             4.10131e-01                                                 1.3414
                             3.99745e-01                                                 1.3183
                             3.89626e-01                                                 1.2971
                             3.74596e-01                                                 1.2664
                             3.50958e-01                                                 1.2177
                             3.25629e-01                                                 1.1691
                             3.00608e-01                                                 1.1197
                             2.75626e-01                                                 1.0704
                             2.50545e-01                                                 1.0222
                             2.25573e-01                                                 0.9734
                             2.00533e-01                                                 0.9265
                             1.75662e-01                                                 0.8794
                             1.50387e-01                                                 0.8312
                             1.25435e-01                                                 0.7830
                             1.00701e-01                                                 0.7336
                             7.57642e-02                                                 0.6805
                             5.08526e-02                                                 0.6229
                             2.37858e-02                                                 0.5446
== Absolute Isotherm ==


                          Pressure                                                  Volume @ STP
                                                                                           
                            Torr                                                        cc/g

                             0.0001                                                      0.0000
                             0.0001                                                      0.0000
                             0.0002                                                      0.0000
                             0.0002                                                      0.0000
                             0.0002                                                      0.0000
                             0.0004                                                      0.0106
                             0.0004                                                      0.0107
                             0.0005                                                      0.0148
                             0.0006                                                      0.0171
