== Analysis Data ==
                                               Administrative information

Analysis performed on:                                                        5/13/2019
Analysis performed by:                                                        Ayupov
Comments:                                                                      
Instrument:                                                                   QuadraSorb SI MP Station: 1
Instrument version:                                                           7.01
Software version:                                                             7.01
 
                                                   Sample information

Id:                                                                           MIL-100(2)
Description:                                                                  Toktarev: MIL-100(2)
Weight:                                                                       0.0101 g
Volume:                                                                       0 cc
 
                                             Sample preparation information

Outgas time:                                                                  10.0 hrs
Outgas temperature:                                                           240.0 C
 
                                                  Analysis information

Ambient temperature:                                                          300 K
Thermal delay:                                                                600 sec
Pressure tolerance:                                                           0.100/0.100 (ads/des)
Equilibration time:                                                           250/250 sec (ads/des)
Equilibration timeout:                                                        600/600 sec (ads/des)
Void volume mode:                                                             He Mode.Cell: 6mm large bulb
Analysis mode:                                                                Standard
== Data Reduction Parameters ==
                  Thermal Transpiration: off    Eff. mol. diameter (D): 3.54 Å      Eff. cell stem diam. (d): 4.0000 mm
t-Method          Calc. method: de Boer
MP method         Thickness interval: 0.50A
Alpha-s method    Std. isotherm: _ASIL1         P / Po :          0.40
BJH/DH method     Moving pt. avg.: 3            Ignoring P-tags below 0.35 P/Po
DA Method         Incr. E:    500.000           Incr. n:          0.100             Interact. Const. (K): 2.960nm³ x kJ / mol
DR method         Affinity coefficient (ß): 0.3300
Adsorbate model   Nitrogen                      Temperature       77.350K
                  Molec. Wt.: 28.013            Cross Section:    16.200  Å²        Liquid Density:   0.808  g/cc
                  Contact Angle: 0.0  degrees   Surf. Tension:    8.850  erg/cm²
                  Critical Temp.: 126.200  K    Critical Press.:  33.500  atm       SuperCritic. K.:  1.000
                  Avg. Diameter:0.300  nm       Polarizability:   1.460  (cc/molec) x 10-24Magn. Suscept.:2.000
                  Molec. Density6.700  (mol/cm²)x1014
Adsorbent model   Oxygen/Zeolite
                  Atom Diameter: 0.276  nm      Surf. Atom Dens.: 13.100  (mol/cm²)x1014Polarizability: 2.500  (cc/molec)x10-24
                                                Magn. Susc.:      1.300  (cc/molec)x10-29
Avg. Particle SizeSample skeletal dens.: 2.200  g/cc
== Volume/Area summary ==
                                                   Surface Area Data
 
MultiPoint BET                                                                           1.706e+03 m²/g
BJH method cumulative adsorption surface area                                            5.288e+01 m²/g
BJH method cumulative desorption surface area                                            8.545e+01 m²/g
 
                                                    Pore Volume Data
 
Total pore volume for pores with Diameter
less than 308.20 nm at P/Po = 0.993748                                                   1.067e+00 cc/g
BJH method cumulative adsorption pore volume                                             3.812e-01 cc/g
BJH method cumulative desorption pore volume                                             3.876e-01 cc/g
 
                                                     Pore Size Data
 
Average pore Diameter                                                                    2.503e+00 nm
BJH method adsorption pore Diameter (Mode Dv(d))                                         3.109e+00 nm
BJH method desorption pore Diameter (Mode Dv(d))                                         3.607e+00 nm
 
 
== Isotherm ==


                          Relative                                                  Volume @ STP
                          Pressure                                                         
                                                                                        cc/g

                             1.26293e-03                                               198.2046
                             1.93304e-03                                               218.0420
                             4.01148e-03                                               247.3609
                             6.01238e-03                                               261.1032
                             7.71054e-03                                               268.9230
                             9.75685e-03                                               276.1515
                             1.89247e-02                                               297.5743
                             3.95301e-02                                               336.4855
                             5.91252e-02                                               365.5793
                             7.89819e-02                                               386.1741
                             9.87293e-02                                               408.2167
                             1.19147e-01                                               431.8912
                             1.39582e-01                                               438.1751
                             1.60226e-01                                               441.9663
                             1.80414e-01                                               445.0221
                             2.00912e-01                                               447.4788
                             2.19530e-01                                               449.4836
                             2.40164e-01                                               451.4654
                             2.60217e-01                                               453.2654
                             2.79690e-01                                               454.8337
                             2.99309e-01                                               456.2089
                             3.34081e-01                                               458.5869
                             3.66925e-01                                               460.5506
                             4.00154e-01                                               462.3002
                             4.33501e-01                                               464.1524
                             4.67129e-01                                               465.7340
                             4.99852e-01                                               467.2610
                             5.33743e-01                                               468.6171
                             5.66355e-01                                               470.0611
                             5.99003e-01                                               471.7655
                             6.33620e-01                                               473.3269
                             6.65510e-01                                               474.9491
                             7.00312e-01                                               476.3560
                             7.33517e-01                                               478.4697
                             7.66083e-01                                               480.3731
                             8.00630e-01                                               482.7222
                             8.33104e-01                                               485.5005
                             8.65939e-01                                               488.7288
                             8.99476e-01                                               492.5316
                             9.09130e-01                                               494.0605
                             9.19767e-01                                               496.0143
                             9.29154e-01                                               498.0820
                             9.39354e-01                                               500.6335
                             9.49177e-01                                               504.1987
                             9.59115e-01                                               508.7199
                             9.70236e-01                                               516.5300
                             9.74233e-01                                               520.9402
                             9.81197e-01                                               533.1876
                             9.84148e-01                                               542.3495
                             9.88842e-01                                               582.6223
                             9.91093e-01                                               612.3142
                             9.93748e-01                                               690.0948
                             9.92342e-01                                               682.8935
                             9.91086e-01                                               666.5639
                             9.85219e-01                                               606.9453
                             9.80909e-01                                               555.5747
                             9.75251e-01                                               533.5500
                             9.70850e-01                                               528.3756
                             9.60850e-01                                               521.0495
                             9.49822e-01                                               516.8702
                             9.39365e-01                                               512.8296
                             9.29127e-01                                               510.8805
                             9.20163e-01                                               509.1276
                             9.08830e-01                                               507.3226
                             8.99221e-01                                               506.1274
                             8.65315e-01                                               502.3547
                             8.30811e-01                                               499.6286
                             7.98912e-01                                               497.7823
                             7.64630e-01                                               495.5926
                             7.30239e-01                                               493.6802
                             6.98449e-01                                               492.4155
                             6.65495e-01                                               490.6985
                             6.31890e-01                                               488.8567
                             5.98628e-01                                               486.6853
                             5.66120e-01                                               486.8594
                             5.31775e-01                                               484.9477
                             4.99829e-01                                               482.9753
                             4.66478e-01                                               476.2446
                             4.33869e-01                                               472.1809
                             4.19750e-01                                               471.0200
                             3.99647e-01                                               469.4647
                             3.79646e-01                                               467.9046
                             3.66382e-01                                               466.8542
                             3.33766e-01                                               464.0540
                             2.99485e-01                                               460.8309
                             2.79948e-01                                               458.8896
                             2.60106e-01                                               456.9083
                             2.40090e-01                                               454.7185
                             2.20228e-01                                               452.3451
                             2.00184e-01                                               449.4067
                             1.80226e-01                                               446.2771
                             1.60422e-01                                               442.8624
                             1.40497e-01                                               438.6699
                             1.21111e-01                                               432.3417
                             1.00070e-01                                               408.3067
                             5.04963e-02                                               351.5414
                             2.54682e-02                                               304.6987
                             1.00271e-02                                               271.2308
== Absolute Isotherm ==


                          Pressure                                                  Volume @ STP
                                                                                           
                            Torr                                                        cc/g

                             0.9635                                                    198.2046
                             1.4761                                                    218.0420
                             3.0636                                                    247.3609
                             4.5905                                                    261.1032
                             5.8881                                                    268.9230
                             7.4499                                                    276.1515
                            14.4484                                                    297.5743
                            30.1663                                                    336.4855
                            45.1356                                                    365.5793
                            60.2817                                                    386.1741
                            75.3218                                                    408.2167
                            90.8853                                                    431.8912
                           106.4348                                                    438.1751
                           122.2121                                                    441.9663
                           137.6296                                                    445.0221
                           153.1878                                                    447.4788
                           167.3967                                                    449.4836
                           183.1792                                                    451.4654
                           198.3594                                                    453.2654
                           213.2474                                                    454.8337
                           228.1839                                                    456.2089
                           254.7121                                                    458.5869
                           279.8245                                                    460.5506
                           305.0088                                                    462.3002
                           330.5793                                                    464.1524
                           356.2611                                                    465.7340
                           381.0740                                                    467.2610
                           407.0468                                                    468.6171
                           431.6187                                                    470.0611
                           456.8083                                                    471.7655
                           483.1909                                                    473.3269
                           507.4125                                                    474.9491
                           533.6113                                                    476.3560
                           558.8963                                                    478.4697
                           584.0298                                                    480.3731
                           610.2410                                                    482.7222
                           634.9625                                                    485.5005
                           660.1141                                                    488.7288
                           685.7609                                                    492.5316
                           692.9166                                                    494.0605
                           701.2158                                                    496.0143
                           708.3048                                                    498.0820
                           715.9164                                                    500.6335
                           723.5110                                                    504.1987
                           731.3833                                                    508.7199
                           739.7786                                                    516.5300
                           743.0465                                                    520.9402
                           748.1389                                                    533.1876
                           750.8503                                                    542.3495
                           755.7316                                                    582.6223
                           757.4223                                                    612.3142
                           758.9757                                                    690.0948
                           758.2898                                                    682.8935
                           757.4052                                                    666.5639
                           752.8490                                                    606.9453
